## w(eV)         sigma(Sm^-1)     kappa(W(mK)^-1)        L12/e(Am^-1)      L22/e^2(Wm^-1)
    0.01              360935             628.668        -7.19399e+06         2.02943e+08
    0.03              360932              628.66        -7.19395e+06         2.02941e+08
    0.05              360925             628.644        -7.19387e+06         2.02939e+08
    0.07              360916              628.62        -7.19374e+06         2.02936e+08
    0.09              360903             628.588        -7.19358e+06         2.02931e+08
    0.11              360887             628.548        -7.19337e+06         2.02926e+08
    0.13              360868               628.5        -7.19312e+06         2.02919e+08
    0.15              360845             628.444        -7.19283e+06         2.02911e+08
    0.17              360820              628.38         -7.1925e+06         2.02902e+08
    0.19              360791             628.309        -7.19213e+06         2.02892e+08
    0.21              360759             628.229        -7.19172e+06         2.02881e+08
    0.23              360724             628.141        -7.19127e+06         2.02868e+08
    0.25              360685             628.045        -7.19077e+06         2.02855e+08
    0.27              360643             627.942        -7.19024e+06          2.0284e+08
    0.29              360599              627.83        -7.18966e+06         2.02824e+08
    0.31              360551             627.711        -7.18904e+06         2.02807e+08
    0.33              360499             627.583        -7.18838e+06         2.02789e+08
    0.35              360445             627.448        -7.18768e+06          2.0277e+08
    0.37              360387             627.304        -7.18694e+06          2.0275e+08
    0.39              360327             627.153        -7.18615e+06         2.02728e+08
    0.41              360263             626.994        -7.18533e+06         2.02706e+08
    0.43              360196             626.827        -7.18446e+06         2.02682e+08
    0.45              360125             626.652        -7.18355e+06         2.02657e+08
    0.47              360052             626.469         -7.1826e+06         2.02631e+08
    0.49              359975             626.278        -7.18161e+06         2.02604e+08
    0.51              359895              626.08        -7.18058e+06         2.02576e+08
    0.53              359812             625.873        -7.17951e+06         2.02547e+08
    0.55              359726             625.659        -7.17839e+06         2.02516e+08
    0.57              359636             625.437        -7.17724e+06         2.02485e+08
    0.59              359544             625.207        -7.17604e+06         2.02452e+08
    0.61              359448             624.969         -7.1748e+06         2.02418e+08
    0.63              359349             624.723        -7.17352e+06         2.02383e+08
    0.65              359247              624.47         -7.1722e+06         2.02347e+08
    0.67              359142             624.209        -7.17084e+06          2.0231e+08
    0.69              359033              623.94        -7.16943e+06         2.02272e+08
    0.71              358921             623.663        -7.16799e+06         2.02232e+08
    0.73              358807             623.378         -7.1665e+06         2.02192e+08
    0.75              358689             623.086        -7.16497e+06          2.0215e+08
    0.77              358568             622.786         -7.1634e+06         2.02107e+08
    0.79              358443             622.478        -7.16179e+06         2.02063e+08
    0.81              358316             622.163        -7.16014e+06         2.02018e+08
    0.83              358185             621.839        -7.15845e+06         2.01972e+08
    0.85              358052             621.509        -7.15671e+06         2.01925e+08
    0.87              357915              621.17        -7.15494e+06         2.01877e+08
    0.89              357775             620.824        -7.15312e+06         2.01827e+08
    0.91              357632              620.47        -7.15126e+06         2.01776e+08
    0.93              357485             620.109        -7.14936e+06         2.01725e+08
    0.95              357336              619.74        -7.14742e+06         2.01672e+08
    0.97              357184             619.363        -7.14543e+06         2.01618e+08
    0.99              357028             618.979        -7.14341e+06         2.01563e+08
    1.01              356869             618.588        -7.14134e+06         2.01506e+08
    1.03              356707             618.188        -7.13923e+06         2.01449e+08
    1.05              356542             617.782        -7.13708e+06          2.0139e+08
    1.07              356374             617.367        -7.13489e+06         2.01331e+08
    1.09              356203             616.946        -7.13266e+06          2.0127e+08
    1.11              356029             616.517        -7.13038e+06         2.01208e+08
    1.13              355851              616.08        -7.12806e+06         2.01145e+08
    1.15              355671             615.636        -7.12571e+06         2.01081e+08
    1.17              355487             615.185        -7.12331e+06         2.01016e+08
    1.19              355300             614.726        -7.12087e+06          2.0095e+08
    1.21              355111              614.26        -7.11838e+06         2.00882e+08
    1.23              354918             613.786        -7.11586e+06         2.00814e+08
    1.25              354722             613.305        -7.11329e+06         2.00744e+08
    1.27              354523             612.817        -7.11069e+06         2.00673e+08
    1.29              354321             612.322        -7.10804e+06         2.00601e+08
    1.31              354116             611.819        -7.10535e+06         2.00528e+08
    1.33              353907             611.309        -7.10261e+06         2.00454e+08
    1.35              353696             610.792        -7.09984e+06         2.00379e+08
    1.37              353482             610.268        -7.09702e+06         2.00303e+08
    1.39              353264             609.736        -7.09416e+06         2.00225e+08
    1.41              353044             609.198        -7.09126e+06         2.00146e+08
    1.43              352820             608.652        -7.08832e+06         2.00067e+08
    1.45              352594             608.099        -7.08534e+06         1.99986e+08
    1.47              352364             607.539        -7.08232e+06         1.99904e+08
    1.49              352132             606.972        -7.07925e+06         1.99821e+08
    1.51              351896             606.399        -7.07614e+06         1.99737e+08
    1.53              351658             605.818        -7.07299e+06         1.99652e+08
    1.55              351416              605.23         -7.0698e+06         1.99565e+08
    1.57              351171             604.635        -7.06656e+06         1.99478e+08
    1.59              350924             604.033        -7.06329e+06         1.99389e+08
    1.61              350673             603.424        -7.05997e+06           1.993e+08
    1.63              350420             602.809        -7.05661e+06         1.99209e+08
    1.65              350163             602.186        -7.05321e+06         1.99117e+08
    1.67              349903             601.557        -7.04976e+06         1.99024e+08
    1.69              349641             600.921        -7.04628e+06          1.9893e+08
    1.71              349375             600.278        -7.04275e+06         1.98835e+08
    1.73              349107             599.629        -7.03918e+06         1.98738e+08
    1.75              348835             598.973        -7.03557e+06         1.98641e+08
    1.77              348561              598.31        -7.03192e+06         1.98542e+08
    1.79              348284              597.64        -7.02822e+06         1.98443e+08
    1.81              348003             596.964        -7.02449e+06         1.98342e+08
    1.83              347720             596.281        -7.02071e+06          1.9824e+08
    1.85              347434             595.592        -7.01688e+06         1.98137e+08
    1.87              347145             594.896        -7.01302e+06         1.98033e+08
    1.89              346853             594.194        -7.00912e+06         1.97928e+08
    1.91              346558             593.485        -7.00517e+06         1.97822e+08
    1.93              346260             592.769        -7.00118e+06         1.97714e+08
    1.95              345959             592.048        -6.99715e+06         1.97606e+08
    1.97              345656              591.32        -6.99307e+06         1.97496e+08
    1.99              345349             590.585        -6.98896e+06         1.97386e+08
    2.01              345040             589.844         -6.9848e+06         1.97274e+08
    2.03              344727             589.097         -6.9806e+06         1.97161e+08
    2.05              344412             588.344        -6.97636e+06         1.97047e+08
    2.07              344094             587.584        -6.97207e+06         1.96932e+08
    2.09              343773             586.818        -6.96774e+06         1.96816e+08
    2.11              343450             586.046        -6.96337e+06         1.96699e+08
    2.13              343123             585.268        -6.95896e+06          1.9658e+08
    2.15              342794             584.484        -6.95451e+06         1.96461e+08
    2.17              342461             583.694        -6.95001e+06          1.9634e+08
    2.19              342126             582.897        -6.94548e+06         1.96219e+08
    2.21              341788             582.095         -6.9409e+06         1.96096e+08
    2.23              341448             581.287        -6.93627e+06         1.95972e+08
    2.25              341104             580.473        -6.93161e+06         1.95847e+08
    2.27              340758             579.652         -6.9269e+06         1.95721e+08
    2.29              340409             578.826        -6.92215e+06         1.95594e+08
    2.31              340057             577.994        -6.91736e+06         1.95466e+08
    2.33              339702             577.157        -6.91252e+06         1.95337e+08
    2.35              339345             576.313        -6.90765e+06         1.95207e+08
    2.37              338984             575.464        -6.90273e+06         1.95075e+08
    2.39              338621             574.609        -6.89777e+06         1.94943e+08
    2.41              338256             573.749        -6.89276e+06         1.94809e+08
    2.43              337887             572.882        -6.88772e+06         1.94674e+08
    2.45              337516              572.01        -6.88263e+06         1.94539e+08
    2.47              337142             571.133         -6.8775e+06         1.94402e+08
    2.49              336765              570.25        -6.87232e+06         1.94264e+08
    2.51              336386             569.362        -6.86711e+06         1.94125e+08
    2.53              336004             568.468        -6.86185e+06         1.93985e+08
    2.55              335619             567.568        -6.85655e+06         1.93844e+08
    2.57              335231             566.664        -6.85121e+06         1.93701e+08
    2.59              334841             565.754        -6.84582e+06         1.93558e+08
    2.61              334448             564.838        -6.84039e+06         1.93413e+08
    2.63              334053             563.918        -6.83492e+06         1.93268e+08
    2.65              333655             562.992        -6.82941e+06         1.93121e+08
    2.67              333254             562.061        -6.82385e+06         1.92974e+08
    2.69              332850             561.124        -6.81825e+06         1.92825e+08
    2.71              332444             560.183        -6.81261e+06         1.92675e+08
    2.73              332035             559.236        -6.80693e+06         1.92524e+08
    2.75              331624             558.285         -6.8012e+06         1.92372e+08
    2.77              331210             557.328        -6.79544e+06         1.92219e+08
    2.79              330794             556.366        -6.78962e+06         1.92065e+08
    2.81              330374               555.4        -6.78377e+06          1.9191e+08
    2.83              329953             554.428        -6.77788e+06         1.91753e+08
    2.85              329528             553.452        -6.77194e+06         1.91596e+08
    2.87              329101             552.471        -6.76596e+06         1.91438e+08
    2.89              328672             551.485        -6.75993e+06         1.91278e+08
    2.91              328240             550.494        -6.75387e+06         1.91117e+08
    2.93              327805             549.499        -6.74776e+06         1.90956e+08
    2.95              327368             548.498        -6.74161e+06         1.90793e+08
    2.97              326928             547.494        -6.73541e+06         1.90629e+08
    2.99              326486             546.484        -6.72918e+06         1.90464e+08
    3.01              326041              545.47         -6.7229e+06         1.90298e+08
    3.03              325594             544.451        -6.71658e+06         1.90131e+08
    3.05              325144             543.428        -6.71021e+06         1.89963e+08
    3.07              324692             542.401         -6.7038e+06         1.89794e+08
    3.09              324237             541.369        -6.69735e+06         1.89624e+08
    3.11              323780             540.333        -6.69086e+06         1.89453e+08
    3.13              323320             539.292        -6.68433e+06          1.8928e+08
    3.15              322858             538.247        -6.67775e+06         1.89107e+08
    3.17              322394             537.198        -6.67113e+06         1.88932e+08
    3.19              321927             536.144        -6.66447e+06         1.88757e+08
    3.21              321457             535.087        -6.65777e+06          1.8858e+08
    3.23              320986             534.025        -6.65102e+06         1.88403e+08
    3.25              320511             532.959        -6.64423e+06         1.88224e+08
    3.27              320035             531.889         -6.6374e+06         1.88044e+08
    3.29              319556             530.815        -6.63052e+06         1.87863e+08
    3.31              319074             529.737         -6.6236e+06         1.87682e+08
    3.33              318590             528.655        -6.61665e+06         1.87499e+08
    3.35              318104             527.569        -6.60964e+06         1.87315e+08
    3.37              317616             526.479         -6.6026e+06          1.8713e+08
    3.39              317125             525.385        -6.59551e+06         1.86943e+08
    3.41              316632             524.288        -6.58838e+06         1.86756e+08
    3.43              316136             523.187        -6.58121e+06         1.86568e+08
    3.45              315638             522.082        -6.57399e+06         1.86379e+08
    3.47              315138             520.973        -6.56674e+06         1.86188e+08
    3.49              314636             519.861        -6.55944e+06         1.85997e+08
    3.51              314131             518.745         -6.5521e+06         1.85805e+08
    3.53              313624             517.626        -6.54471e+06         1.85611e+08
    3.55              313115             516.503        -6.53729e+06         1.85417e+08
    3.57              312603             515.377        -6.52982e+06         1.85221e+08
    3.59              312089             514.247        -6.52231e+06         1.85025e+08
    3.61              311573             513.113        -6.51475e+06         1.84827e+08
    3.63              311055             511.977        -6.50716e+06         1.84628e+08
    3.65              310535             510.837        -6.49952e+06         1.84428e+08
    3.67              310012             509.694        -6.49184e+06         1.84228e+08
    3.69              309487             508.547        -6.48412e+06         1.84026e+08
    3.71              308960             507.397        -6.47635e+06         1.83823e+08
    3.73              308431             506.244        -6.46855e+06         1.83619e+08
    3.75              307899             505.088         -6.4607e+06         1.83414e+08
    3.77              307366             503.929        -6.45281e+06         1.83208e+08
    3.79              306830             502.767        -6.44487e+06         1.83001e+08
    3.81              306292             501.602         -6.4369e+06         1.82793e+08
    3.83              305752             500.434        -6.42888e+06         1.82584e+08
    3.85              305210             499.263        -6.42082e+06         1.82374e+08
    3.87              304666             498.089        -6.41272e+06         1.82163e+08
    3.89              304119             496.912        -6.40458e+06          1.8195e+08
    3.91              303571             495.732        -6.39639e+06         1.81737e+08
    3.93              303020              494.55        -6.38816e+06         1.81523e+08
    3.95              302468             493.365         -6.3799e+06         1.81308e+08
    3.97              301913             492.177        -6.37159e+06         1.81091e+08
    3.99              301357             490.986        -6.36323e+06         1.80874e+08
    4.01              300798             489.793        -6.35484e+06         1.80656e+08
    4.03              300237             488.597         -6.3464e+06         1.80436e+08
    4.05              299674             487.399        -6.33793e+06         1.80216e+08
    4.07              299110             486.198        -6.32941e+06         1.79994e+08
    4.09              298543             484.995        -6.32085e+06         1.79772e+08
    4.11              297974             483.789        -6.31224e+06         1.79548e+08
    4.13              297403             482.581         -6.3036e+06         1.79324e+08
    4.15              296831             481.371        -6.29492e+06         1.79098e+08
    4.17              296256             480.158        -6.28619e+06         1.78872e+08
    4.19              295679             478.943        -6.27742e+06         1.78644e+08
    4.21              295101             477.726        -6.26861e+06         1.78416e+08
    4.23              294521             476.506        -6.25976e+06         1.78186e+08
    4.25              293938             475.285        -6.25087e+06         1.77956e+08
    4.27              293354             474.061        -6.24194e+06         1.77724e+08
    4.29              292768             472.835        -6.23296e+06         1.77491e+08
    4.31              292180             471.607        -6.22395e+06         1.77258e+08
    4.33              291590             470.378        -6.21489e+06         1.77023e+08
    4.35              290998             469.146         -6.2058e+06         1.76787e+08
    4.37              290405             467.912        -6.19666e+06         1.76551e+08
    4.39              289810             466.676        -6.18748e+06         1.76313e+08
    4.41              289212             465.439        -6.17826e+06         1.76075e+08
    4.43              288613             464.199          -6.169e+06         1.75835e+08
    4.45              288013             462.958         -6.1597e+06         1.75594e+08
    4.47              287410             461.715        -6.15036e+06         1.75353e+08
    4.49              286806             460.471        -6.14098e+06          1.7511e+08
    4.51              286200             459.225        -6.13156e+06         1.74866e+08
    4.53              285592             457.977         -6.1221e+06         1.74622e+08
    4.55              284982             456.727         -6.1126e+06         1.74376e+08
    4.57              284371             455.476        -6.10306e+06          1.7413e+08
    4.59              283758             454.224        -6.09347e+06         1.73882e+08
    4.61              283143              452.97        -6.08385e+06         1.73634e+08
    4.63              282527             451.714        -6.07419e+06         1.73384e+08
    4.65              281909             450.457        -6.06449e+06         1.73134e+08
    4.67              281289             449.199        -6.05474e+06         1.72882e+08
    4.69              280668              447.94        -6.04496e+06          1.7263e+08
    4.71              280045             446.679        -6.03514e+06         1.72376e+08
    4.73              279420             445.417        -6.02528e+06         1.72122e+08
    4.75              278794             444.153        -6.01538e+06         1.71866e+08
    4.77              278166             442.889        -6.00544e+06          1.7161e+08
    4.79              277536             441.623        -5.99546e+06         1.71353e+08
    4.81              276905             440.356        -5.98544e+06         1.71094e+08
    4.83              276273             439.088        -5.97539e+06         1.70835e+08
    4.85              275639             437.819        -5.96529e+06         1.70575e+08
    4.87              275003             436.549        -5.95516e+06         1.70314e+08
    4.89              274366             435.278        -5.94498e+06         1.70052e+08
    4.91              273727             434.006        -5.93477e+06         1.69788e+08
    4.93              273087             432.733        -5.92452e+06         1.69524e+08
    4.95              272445              431.46        -5.91423e+06         1.69259e+08
    4.97              271802             430.185         -5.9039e+06         1.68993e+08
    4.99              271157              428.91        -5.89354e+06         1.68726e+08
    5.01              270511             427.634        -5.88313e+06         1.68459e+08
    5.03              269863             426.357        -5.87269e+06          1.6819e+08
    5.05              269214             425.079        -5.86221e+06          1.6792e+08
    5.07              268563             423.801        -5.85169e+06         1.67649e+08
    5.09              267912             422.522        -5.84114e+06         1.67378e+08
    5.11              267258             421.243        -5.83054e+06         1.67105e+08
    5.13              266604             419.963        -5.81991e+06         1.66832e+08
    5.15              265948             418.682        -5.80924e+06         1.66557e+08
    5.17              265290             417.401        -5.79854e+06         1.66282e+08
    5.19              264631             416.119         -5.7878e+06         1.66006e+08
    5.21              263971             414.837        -5.77702e+06         1.65729e+08
    5.23              263310             413.555         -5.7662e+06         1.65451e+08
    5.25              262647             412.272        -5.75535e+06         1.65172e+08
    5.27              261983             410.989        -5.74446e+06         1.64892e+08
    5.29              261318             409.706        -5.73353e+06         1.64611e+08
    5.31              260652             408.422        -5.72257e+06         1.64329e+08
    5.33              259984             407.139        -5.71157e+06         1.64046e+08
    5.35              259315             405.855        -5.70054e+06         1.63763e+08
    5.37              258645              404.57        -5.68946e+06         1.63478e+08
    5.39              257973             403.286        -5.67836e+06         1.63193e+08
    5.41              257301             402.002        -5.66722e+06         1.62907e+08
    5.43              256627             400.717        -5.65604e+06          1.6262e+08
    5.45              255952             399.432        -5.64483e+06         1.62332e+08
    5.47              255276             398.148        -5.63358e+06         1.62043e+08
    5.49              254598             396.863         -5.6223e+06         1.61753e+08
    5.51              253920             395.579        -5.61098e+06         1.61462e+08
    5.53              253241             394.294        -5.59963e+06         1.61171e+08
    5.55              252560              393.01        -5.58824e+06         1.60878e+08
    5.57              251878             391.726        -5.57682e+06         1.60585e+08
    5.59              251195             390.442        -5.56536e+06         1.60291e+08
    5.61              250512             389.158        -5.55387e+06         1.59996e+08
    5.63              249827             387.875        -5.54235e+06           1.597e+08
    5.65              249141             386.591        -5.53079e+06         1.59403e+08
    5.67              248454             385.308         -5.5192e+06         1.59106e+08
    5.69              247766             384.026        -5.50758e+06         1.58807e+08
    5.71              247077             382.744        -5.49592e+06         1.58508e+08
    5.73              246387             381.462        -5.48423e+06         1.58208e+08
    5.75              245696              380.18        -5.47251e+06         1.57907e+08
    5.77              245004             378.899        -5.46075e+06         1.57605e+08
    5.79              244312             377.619        -5.44896e+06         1.57303e+08
    5.81              243618             376.339        -5.43714e+06         1.56999e+08
    5.83              242923             375.059        -5.42529e+06         1.56695e+08
    5.85              242228              373.78        -5.41341e+06          1.5639e+08
    5.87              241532             372.502        -5.40149e+06         1.56084e+08
    5.89              240834             371.224        -5.38954e+06         1.55778e+08
    5.91              240136             369.947        -5.37756e+06          1.5547e+08
    5.93              239437             368.671        -5.36555e+06         1.55162e+08
    5.95              238738             367.395        -5.35351e+06         1.54853e+08
    5.97              238037              366.12        -5.34144e+06         1.54543e+08
    5.99              237336             364.846        -5.32934e+06         1.54232e+08
    6.01              236634             363.572        -5.31721e+06         1.53921e+08
    6.03              235931               362.3        -5.30504e+06         1.53609e+08
    6.05              235227             361.028        -5.29285e+06         1.53296e+08
    6.07              234523             359.757        -5.28063e+06         1.52982e+08
    6.09              233818             358.487        -5.26838e+06         1.52667e+08
    6.11              233112             357.218         -5.2561e+06         1.52352e+08
    6.13              232406              355.95        -5.24379e+06         1.52036e+08
    6.15              231699             354.683        -5.23145e+06         1.51719e+08
    6.17              230991             353.416        -5.21908e+06         1.51402e+08
    6.19              230283             352.151        -5.20669e+06         1.51083e+08
    6.21              229574             350.887        -5.19426e+06         1.50764e+08
    6.23              228864             349.624        -5.18181e+06         1.50444e+08
    6.25              228154             348.362        -5.16933e+06         1.50124e+08
    6.27              227443             347.101        -5.15683e+06         1.49803e+08
    6.29              226732             345.842        -5.14429e+06         1.49481e+08
    6.31              226020             344.583        -5.13173e+06         1.49158e+08
    6.33              225307             343.326        -5.11914e+06         1.48835e+08
    6.35              224594              342.07        -5.10653e+06         1.48511e+08
    6.37              223881             340.816        -5.09389e+06         1.48186e+08
    6.39              223167             339.562        -5.08122e+06          1.4786e+08
    6.41              222453              338.31        -5.06853e+06         1.47534e+08
    6.43              221738             337.059        -5.05581e+06         1.47208e+08
    6.45              221022              335.81        -5.04307e+06          1.4688e+08
    6.47              220307             334.562         -5.0303e+06         1.46552e+08
    6.49              219590             333.315        -5.01751e+06         1.46223e+08
    6.51              218874              332.07         -5.0047e+06         1.45894e+08
    6.53              218157             330.826        -4.99185e+06         1.45563e+08
    6.55              217439             329.584        -4.97899e+06         1.45233e+08
    6.57              216722             328.343         -4.9661e+06         1.44901e+08
    6.59              216004             327.103        -4.95319e+06         1.44569e+08
    6.61              215285             325.866        -4.94025e+06         1.44236e+08
    6.63              214567             324.629         -4.9273e+06         1.43903e+08
    6.65              213848             323.395        -4.91432e+06         1.43569e+08
    6.67              213129             322.162        -4.90131e+06         1.43235e+08
    6.69              212409              320.93        -4.88829e+06         1.42899e+08
    6.71              211690             319.701        -4.87524e+06         1.42564e+08
    6.73              210970             318.473        -4.86218e+06         1.42227e+08
    6.75              210250             317.246        -4.84909e+06          1.4189e+08
    6.77              209529             316.022        -4.83598e+06         1.41553e+08
    6.79              208809             314.799        -4.82285e+06         1.41215e+08
    6.81              208088             313.578         -4.8097e+06         1.40876e+08
    6.83              207368             312.358        -4.79653e+06         1.40537e+08
    6.85              206647             311.141        -4.78333e+06         1.40197e+08
    6.87              205926             309.925        -4.77013e+06         1.39857e+08
    6.89              205205             308.711         -4.7569e+06         1.39516e+08
    6.91              204483             307.499        -4.74365e+06         1.39174e+08
    6.93              203762             306.289        -4.73038e+06         1.38832e+08
    6.95              203041             305.081         -4.7171e+06          1.3849e+08
    6.97              202319             303.875         -4.7038e+06         1.38147e+08
    6.99              201598              302.67        -4.69048e+06         1.37803e+08
    7.01              200877             301.468        -4.67714e+06          1.3746e+08
    7.03              200155             300.268        -4.66378e+06         1.37115e+08
    7.05              199434             299.069        -4.65041e+06          1.3677e+08
    7.07              198713             297.873        -4.63703e+06         1.36425e+08
    7.09              197992             296.679        -4.62362e+06         1.36079e+08
    7.11              197271             295.486         -4.6102e+06         1.35732e+08
    7.13              196550             294.296        -4.59677e+06         1.35385e+08
    7.15              195829             293.108        -4.58332e+06         1.35038e+08
    7.17              195108             291.922        -4.56986e+06          1.3469e+08
    7.19              194388             290.739        -4.55638e+06         1.34342e+08
    7.21              193667             289.557        -4.54288e+06         1.33994e+08
    7.23              192947             288.377        -4.52938e+06         1.33645e+08
    7.25              192227               287.2        -4.51586e+06         1.33295e+08
    7.27              191507             286.025        -4.50233e+06         1.32945e+08
    7.29              190788             284.852        -4.48878e+06         1.32595e+08
    7.31              190068             283.682        -4.47522e+06         1.32245e+08
    7.33              189349             282.514        -4.46165e+06         1.31894e+08
    7.35              188630             281.348        -4.44807e+06         1.31542e+08
    7.37              187912             280.184        -4.43448e+06          1.3119e+08
    7.39              187194             279.022        -4.42087e+06         1.30838e+08
    7.41              186476             277.863        -4.40726e+06         1.30486e+08
    7.43              185758             276.707        -4.39363e+06         1.30133e+08
    7.45              185041             275.552           -4.38e+06          1.2978e+08
    7.47              184325               274.4        -4.36635e+06         1.29426e+08
    7.49              183608             273.251         -4.3527e+06         1.29073e+08
    7.51              182892             272.104        -4.33903e+06         1.28719e+08
    7.53              182177             270.959        -4.32536e+06         1.28364e+08
    7.55              181462             269.817        -4.31168e+06          1.2801e+08
    7.57              180747             268.677        -4.29799e+06         1.27655e+08
    7.59              180033              267.54         -4.2843e+06         1.27299e+08
    7.61              179319             266.405        -4.27059e+06         1.26944e+08
    7.63              178606             265.273        -4.25688e+06         1.26588e+08
    7.65              177894             264.143        -4.24317e+06         1.26232e+08
    7.67              177182             263.016        -4.22944e+06         1.25876e+08
    7.69              176470             261.891        -4.21572e+06         1.25519e+08
    7.71              175759             260.769        -4.20198e+06         1.25163e+08
    7.73              175049             259.649        -4.18824e+06         1.24806e+08
    7.75              174339             258.532         -4.1745e+06         1.24449e+08
    7.77              173630             257.418        -4.16075e+06         1.24091e+08
    7.79              172922             256.306          -4.147e+06         1.23734e+08
    7.81              172214             255.197        -4.13325e+06         1.23376e+08
    7.83              171507             254.091        -4.11949e+06         1.23018e+08
    7.85              170801             252.987        -4.10573e+06          1.2266e+08
    7.87              170095             251.886        -4.09196e+06         1.22302e+08
    7.89              169390             250.788         -4.0782e+06         1.21944e+08
    7.91              168686             249.693        -4.06443e+06         1.21585e+08
    7.93              167983               248.6        -4.05066e+06         1.21226e+08
    7.95              167280              247.51        -4.03689e+06         1.20868e+08
    7.97              166578             246.422        -4.02312e+06         1.20509e+08
    7.99              165877             245.338        -4.00935e+06          1.2015e+08
    8.01              165177             244.256        -3.99558e+06         1.19791e+08
    8.03              164478             243.177        -3.98182e+06         1.19432e+08
    8.05              163779               242.1        -3.96805e+06         1.19073e+08
    8.07              163082             241.027        -3.95428e+06         1.18713e+08
    8.09              162385             239.956        -3.94051e+06         1.18354e+08
    8.11              161689             238.889        -3.92675e+06         1.17995e+08
    8.13              160994             237.824        -3.91299e+06         1.17636e+08
    8.15              160300             236.762        -3.89923e+06         1.17276e+08
    8.17              159607             235.703        -3.88548e+06         1.16917e+08
    8.19              158915             234.646        -3.87173e+06         1.16557e+08
    8.21              158224             233.593        -3.85798e+06         1.16198e+08
    8.23              157534             232.543        -3.84424e+06         1.15839e+08
    8.25              156845             231.495         -3.8305e+06         1.15479e+08
    8.27              156157             230.451        -3.81677e+06          1.1512e+08
    8.29              155471             229.409        -3.80304e+06         1.14761e+08
    8.31              154785              228.37        -3.78932e+06         1.14401e+08
    8.33              154100             227.335        -3.77561e+06         1.14042e+08
    8.35              153416             226.302         -3.7619e+06         1.13683e+08
    8.37              152734             225.272         -3.7482e+06         1.13324e+08
    8.39              152052             224.245        -3.73451e+06         1.12965e+08
    8.41              151372             223.222        -3.72082e+06         1.12606e+08
    8.43              150693             222.201        -3.70715e+06         1.12248e+08
    8.45              150015             221.183        -3.69348e+06         1.11889e+08
    8.47              149339             220.168        -3.67982e+06         1.11531e+08
    8.49              148663             219.157        -3.66617e+06         1.11172e+08
    8.51              147989             218.148        -3.65253e+06         1.10814e+08
    8.53              147316             217.143         -3.6389e+06         1.10456e+08
    8.55              146644             216.141        -3.62529e+06         1.10098e+08
    8.57              145974             215.141        -3.61168e+06         1.09741e+08
    8.59              145305             214.145        -3.59808e+06         1.09383e+08
    8.61              144637             213.152         -3.5845e+06         1.09026e+08
    8.63              143970             212.162        -3.57093e+06         1.08669e+08
    8.65              143305             211.175        -3.55737e+06         1.08312e+08
    8.67              142641             210.191        -3.54382e+06         1.07956e+08
    8.69              141979             209.211        -3.53029e+06         1.07599e+08
    8.71              141318             208.233        -3.51677e+06         1.07243e+08
    8.73              140658             207.259        -3.50326e+06         1.06887e+08
    8.75              140000             206.288        -3.48977e+06         1.06532e+08
    8.77              139343              205.32         -3.4763e+06         1.06176e+08
    8.79              138688             204.356        -3.46284e+06         1.05821e+08
    8.81              138034             203.394         -3.4494e+06         1.05467e+08
    8.83              137381             202.436        -3.43597e+06         1.05112e+08
    8.85              136730             201.481        -3.42256e+06         1.04758e+08
    8.87              136081             200.529        -3.40916e+06         1.04405e+08
    8.89              135433              199.58        -3.39578e+06         1.04051e+08
    8.91              134786             198.635        -3.38242e+06         1.03698e+08
    8.93              134141             197.692        -3.36908e+06         1.03345e+08
    8.95              133498             196.754        -3.35576e+06         1.02993e+08
    8.97              132856             195.818        -3.34245e+06         1.02641e+08
    8.99              132216             194.885        -3.32917e+06         1.02289e+08
    9.01              131578             193.956         -3.3159e+06         1.01938e+08
    9.03              130941              193.03        -3.30265e+06         1.01588e+08
    9.05              130305             192.108        -3.28943e+06         1.01237e+08
    9.07              129672             191.189        -3.27622e+06         1.00887e+08
    9.09              129040             190.273        -3.26304e+06         1.00538e+08
    9.11              128409              189.36        -3.24988e+06         1.00189e+08
    9.13              127781             188.451        -3.23674e+06         9.98402e+07
    9.15              127154             187.545        -3.22362e+06         9.94921e+07
    9.17              126528             186.642        -3.21052e+06         9.91445e+07
    9.19              125905             185.743        -3.19745e+06         9.87974e+07
    9.21              125283             184.847         -3.1844e+06         9.84507e+07
    9.23              124663             183.954        -3.17137e+06         9.81046e+07
    9.25              124045             183.064        -3.15837e+06          9.7759e+07
    9.27              123428             182.178        -3.14539e+06         9.74139e+07
    9.29              122814             181.296        -3.13244e+06         9.70693e+07
    9.31              122201             180.417        -3.11951e+06         9.67253e+07
    9.33              121590             179.541        -3.10661e+06         9.63819e+07
    9.35              120981             178.668        -3.09373e+06          9.6039e+07
    9.37              120373             177.799        -3.08088e+06         9.56967e+07
    9.39              119768             176.933        -3.06806e+06          9.5355e+07
    9.41              119164             176.071        -3.05526e+06         9.50138e+07
    9.43              118562             175.212        -3.04249e+06         9.46733e+07
    9.45              117962             174.357        -3.02975e+06         9.43334e+07
    9.47              117364             173.505        -3.01703e+06         9.39941e+07
    9.49              116768             172.656        -3.00435e+06         9.36554e+07
    9.51              116174             171.811        -2.99169e+06         9.33174e+07
    9.53              115582             170.969        -2.97906e+06           9.298e+07
    9.55              114992             170.131        -2.96646e+06         9.26433e+07
    9.57              114403             169.296        -2.95389e+06         9.23072e+07
    9.59              113817             168.464        -2.94135e+06         9.19719e+07
    9.61              113233             167.636        -2.92884e+06         9.16372e+07
    9.63              112650             166.811        -2.91637e+06         9.13032e+07
    9.65              112070              165.99        -2.90392e+06         9.09699e+07
    9.67              111492             165.173         -2.8915e+06         9.06374e+07
    9.69              110916             164.358        -2.87912e+06         9.03055e+07
    9.71              110341             163.548        -2.86677e+06         8.99744e+07
    9.73              109769              162.74        -2.85445e+06          8.9644e+07
    9.75              109199             161.937        -2.84216e+06         8.93144e+07
    9.77              108631             161.136         -2.8299e+06         8.89856e+07
    9.79              108065              160.34        -2.81768e+06         8.86575e+07
    9.81              107501             159.546         -2.8055e+06         8.83302e+07
    9.83              106940             158.756        -2.79334e+06         8.80036e+07
    9.85              106380              157.97        -2.78122e+06         8.76779e+07
    9.87              105822             157.187        -2.76914e+06          8.7353e+07
    9.89              105267             156.408        -2.75709e+06         8.70289e+07
    9.91              104714             155.632        -2.74507e+06         8.67056e+07
    9.93              104163              154.86         -2.7331e+06         8.63831e+07
    9.95              103614             154.091        -2.72115e+06         8.60615e+07
    9.97              103067             153.326        -2.70924e+06         8.57407e+07
    9.99              102523             152.564        -2.69737e+06         8.54207e+07
   10.01              101980             151.806        -2.68554e+06         8.51017e+07
   10.03              101440             151.052        -2.67374e+06         8.47835e+07
   10.05              100902               150.3        -2.66198e+06         8.44662e+07
   10.07              100367             149.553        -2.65026e+06         8.41497e+07
   10.09             99833.2             148.809        -2.63858e+06         8.38342e+07
   10.11               99302             148.068        -2.62693e+06         8.35195e+07
   10.13               98773             147.331        -2.61532e+06         8.32058e+07
   10.15             98246.3             146.598        -2.60375e+06          8.2893e+07
   10.17             97721.8             145.868        -2.59222e+06         8.25811e+07
   10.19             97199.6             145.142        -2.58073e+06         8.22702e+07
   10.21             96679.7             144.419        -2.56928e+06         8.19602e+07
   10.23             96162.1               143.7        -2.55787e+06         8.16511e+07
   10.25             95646.8             142.985        -2.54649e+06          8.1343e+07
   10.27             95133.8             142.273        -2.53516e+06         8.10359e+07
   10.29             94623.1             141.564        -2.52387e+06         8.07297e+07
   10.31             94114.7              140.86        -2.51262e+06         8.04245e+07
   10.33             93608.6             140.158        -2.50141e+06         8.01203e+07
   10.35             93104.9             139.461        -2.49024e+06         7.98171e+07
   10.37             92603.5             138.767        -2.47912e+06         7.95149e+07
   10.39             92104.5             138.076        -2.46803e+06         7.92137e+07
   10.41             91607.8             137.389        -2.45699e+06         7.89135e+07
   10.43             91113.4             136.706        -2.44599e+06         7.86143e+07
   10.45             90621.5             136.026        -2.43503e+06         7.83162e+07
   10.47             90131.9              135.35        -2.42411e+06         7.80191e+07
   10.49             89644.6             134.678        -2.41324e+06          7.7723e+07
   10.51             89159.8             134.009        -2.40241e+06          7.7428e+07
   10.53             88677.4             133.344        -2.39163e+06         7.71341e+07
   10.55             88197.3             132.682        -2.38088e+06         7.68412e+07
   10.57             87719.7             132.024        -2.37018e+06         7.65493e+07
   10.59             87244.4             131.369        -2.35953e+06         7.62586e+07
   10.61             86771.6             130.719        -2.34892e+06         7.59689e+07
   10.63             86301.2             130.071        -2.33835e+06         7.56803e+07
   10.65             85833.2             129.428        -2.32783e+06         7.53928e+07
   10.67             85367.7             128.788        -2.31736e+06         7.51064e+07
   10.69             84904.5             128.152        -2.30692e+06         7.48211e+07
   10.71             84443.9             127.519        -2.29654e+06          7.4537e+07
   10.73             83985.6              126.89         -2.2862e+06         7.42539e+07
   10.75             83529.8             126.265         -2.2759e+06         7.39719e+07
   10.77             83076.5             125.643        -2.26565e+06         7.36911e+07
   10.79             82625.6             125.025        -2.25545e+06         7.34114e+07
   10.81             82177.1              124.41        -2.24529e+06         7.31329e+07
   10.83             81731.2             123.799        -2.23518e+06         7.28555e+07
   10.85             81287.7             123.192        -2.22512e+06         7.25792e+07
   10.87             80846.6             122.589         -2.2151e+06         7.23041e+07
   10.89             80408.1             121.989        -2.20513e+06         7.20302e+07
   10.91               79972             121.392         -2.1952e+06         7.17574e+07
   10.93             79538.4               120.8        -2.18533e+06         7.14858e+07
   10.95             79107.3             120.211         -2.1755e+06         7.12154e+07
   10.97             78678.6             119.626        -2.16572e+06         7.09462e+07
   10.99             78252.5             119.044        -2.15598e+06         7.06781e+07
   11.01             77828.8             118.466        -2.14629e+06         7.04112e+07
   11.03             77407.7             117.892        -2.13666e+06         7.01455e+07
   11.05               76989             117.321        -2.12706e+06          6.9881e+07
   11.07             76572.8             116.754        -2.11752e+06         6.96178e+07
   11.09             76159.2             116.191        -2.10803e+06         6.93557e+07
   11.11               75748             115.631        -2.09858e+06         6.90948e+07
   11.13             75339.4             115.076        -2.08918e+06         6.88351e+07
   11.15             74933.2             114.523        -2.07984e+06         6.85767e+07
   11.17             74529.6             113.975        -2.07054e+06         6.83195e+07
   11.19             74128.4              113.43        -2.06128e+06         6.80635e+07
   11.21             73729.8             112.889        -2.05208e+06         6.78087e+07
   11.23             73333.7             112.351        -2.04293e+06         6.75552e+07
   11.25             72940.1             111.817        -2.03383e+06         6.73029e+07
   11.27               72549             111.287        -2.02477e+06         6.70519e+07
   11.29             72160.4             110.761        -2.01577e+06         6.68021e+07
   11.31             71774.4             110.238        -2.00681e+06         6.65535e+07
   11.33             71390.9             109.719         -1.9979e+06         6.63062e+07
   11.35             71009.8             109.204        -1.98905e+06         6.60602e+07
   11.37             70631.3             108.692        -1.98024e+06         6.58154e+07
   11.39             70255.3             108.184        -1.97149e+06         6.55718e+07
   11.41             69881.8              107.68        -1.96278e+06         6.53296e+07
   11.43             69510.9             107.179        -1.95412e+06         6.50885e+07
   11.45             69142.4             106.683        -1.94551e+06         6.48488e+07
   11.47             68776.5              106.19        -1.93696e+06         6.46103e+07
   11.49             68413.1               105.7        -1.92845e+06         6.43731e+07
   11.51             68052.2             105.214           -1.92e+06         6.41372e+07
   11.53             67693.8             104.732        -1.91159e+06         6.39026e+07
   11.55             67337.9             104.254        -1.90323e+06         6.36692e+07
   11.57             66984.5              103.78        -1.89493e+06         6.34371e+07
   11.59             66633.6             103.309        -1.88667e+06         6.32063e+07
   11.61             66285.3             102.842        -1.87847e+06         6.29768e+07
   11.63             65939.4             102.378        -1.87032e+06         6.27486e+07
   11.65             65596.1             101.919        -1.86221e+06         6.25216e+07
   11.67             65255.2             101.463        -1.85416e+06          6.2296e+07
   11.69             64916.9             101.011        -1.84616e+06         6.20716e+07
   11.71             64581.1             100.562        -1.83821e+06         6.18485e+07
   11.73             64247.7             100.117        -1.83031e+06         6.16268e+07
   11.75             63916.8             99.6762        -1.82246e+06         6.14063e+07
   11.77             63588.5             99.2389        -1.81466e+06         6.11871e+07
   11.79             63262.6             98.8053        -1.80691e+06         6.09693e+07
   11.81             62939.2             98.3755        -1.79921e+06         6.07527e+07
   11.83             62618.3             97.9494        -1.79157e+06         6.05374e+07
   11.85             62299.9              97.527        -1.78397e+06         6.03235e+07
   11.87             61983.9             97.1083        -1.77643e+06         6.01108e+07
   11.89             61670.4             96.6934        -1.76893e+06         5.98994e+07
   11.91             61359.4             96.2822        -1.76149e+06         5.96894e+07
   11.93             61050.9             95.8748         -1.7541e+06         5.94806e+07
   11.95             60744.8              95.471        -1.74675e+06         5.92732e+07
   11.97             60441.2             95.0711        -1.73946e+06          5.9067e+07
   11.99               60140             94.6748        -1.73222e+06         5.88622e+07
   12.01             59841.3             94.2823        -1.72503e+06         5.86586e+07
   12.03             59545.1             93.8936        -1.71789e+06         5.84564e+07
   12.05             59251.3             93.5085         -1.7108e+06         5.82555e+07
   12.07             58959.9             93.1272        -1.70376e+06         5.80559e+07
   12.09             58670.9             92.7497        -1.69678e+06         5.78575e+07
   12.11             58384.4             92.3758        -1.68984e+06         5.76605e+07
   12.13             58100.4             92.0057        -1.68295e+06         5.74648e+07
   12.15             57818.7             91.6394        -1.67612e+06         5.72704e+07
   12.17             57539.4             91.2768        -1.66933e+06         5.70773e+07
   12.19             57262.6             90.9179        -1.66259e+06         5.68855e+07
   12.21             56988.2             90.5627        -1.65591e+06         5.66951e+07
   12.23             56716.2             90.2113        -1.64927e+06         5.65059e+07
   12.25             56446.5             89.8636        -1.64269e+06          5.6318e+07
   12.27             56179.3             89.5196        -1.63615e+06         5.61314e+07
   12.29             55914.4             89.1794        -1.62967e+06         5.59461e+07
   12.31               55652             88.8429        -1.62323e+06         5.57621e+07
   12.33             55391.9             88.5101        -1.61685e+06         5.55794e+07
   12.35             55134.1             88.1811        -1.61051e+06          5.5398e+07
   12.37             54878.8             87.8557        -1.60423e+06         5.52179e+07
   12.39             54625.7             87.5341        -1.59799e+06         5.50391e+07
   12.41             54375.1             87.2162        -1.59181e+06         5.48616e+07
   12.43             54126.8              86.902        -1.58567e+06         5.46853e+07
   12.45             53880.8             86.5915        -1.57958e+06         5.45104e+07
   12.47             53637.1             86.2847        -1.57354e+06         5.43367e+07
   12.49             53395.8             85.9817        -1.56755e+06         5.41643e+07
   12.51             53156.8             85.6823        -1.56161e+06         5.39932e+07
   12.53             52920.1             85.3866        -1.55572e+06         5.38234e+07
   12.55             52685.7             85.0946        -1.54988e+06         5.36549e+07
   12.57             52453.6             84.8064        -1.54409e+06         5.34876e+07
   12.59             52223.8             84.5218        -1.53834e+06         5.33216e+07
   12.61             51996.3             84.2408        -1.53265e+06         5.31569e+07
   12.63               51771             83.9636          -1.527e+06         5.29934e+07
   12.65               51548             83.6901         -1.5214e+06         5.28313e+07
   12.67             51327.3             83.4202        -1.51585e+06         5.26703e+07
   12.69             51108.9             83.1539        -1.51035e+06         5.25107e+07
   12.71             50892.6             82.8914         -1.5049e+06         5.23523e+07
   12.73             50678.7             82.6325        -1.49949e+06         5.21951e+07
   12.75             50466.9             82.3772        -1.49413e+06         5.20392e+07
   12.77             50257.4             82.1256        -1.48882e+06         5.18846e+07
   12.79             50050.1             81.8776        -1.48356e+06         5.17312e+07
   12.81               49845             81.6332        -1.47834e+06          5.1579e+07
   12.83             49642.1             81.3925        -1.47317e+06         5.14281e+07
   12.85             49441.4             81.1553        -1.46805e+06         5.12785e+07
   12.87             49242.8             80.9218        -1.46297e+06           5.113e+07
   12.89             49046.5             80.6919        -1.45795e+06         5.09828e+07
   12.91             48852.3             80.4656        -1.45297e+06         5.08368e+07
   12.93             48660.2             80.2429        -1.44803e+06         5.06921e+07
   12.95             48470.4             80.0237        -1.44314e+06         5.05485e+07
   12.97             48282.6             79.8081         -1.4383e+06         5.04062e+07
   12.99               48097             79.5961         -1.4335e+06         5.02651e+07
   13.01             47913.5             79.3876        -1.42875e+06         5.01252e+07
   13.03             47732.1             79.1826        -1.42405e+06         4.99865e+07
   13.05             47552.9             78.9812        -1.41939e+06         4.98491e+07
   13.07             47375.7             78.7833        -1.41478e+06         4.97128e+07
   13.09             47200.6             78.5889        -1.41021e+06         4.95777e+07
   13.11             47027.6             78.3981        -1.40569e+06         4.94438e+07
   13.13             46856.7             78.2107        -1.40121e+06         4.93111e+07
   13.15             46687.8             78.0267        -1.39678e+06         4.91796e+07
   13.17             46520.9             77.8463        -1.39239e+06         4.90492e+07
   13.19             46356.2             77.6693        -1.38804e+06           4.892e+07
   13.21             46193.4             77.4957        -1.38374e+06          4.8792e+07
   13.23             46032.7             77.3256        -1.37949e+06         4.86652e+07
   13.25             45873.9             77.1589        -1.37528e+06         4.85395e+07
   13.27             45717.2             76.9956        -1.37111e+06          4.8415e+07
   13.29             45562.5             76.8357        -1.36698e+06         4.82916e+07
   13.31             45409.7             76.6792         -1.3629e+06         4.81694e+07
   13.33               45259              76.526        -1.35886e+06         4.80483e+07
   13.35             45110.2             76.3762        -1.35487e+06         4.79284e+07
   13.37             44963.3             76.2297        -1.35092e+06         4.78096e+07
   13.39             44818.4             76.0865        -1.34701e+06         4.76919e+07
   13.41             44675.4             75.9466        -1.34314e+06         4.75754e+07
   13.43             44534.4             75.8101        -1.33932e+06         4.74599e+07
   13.45             44395.3             75.6768        -1.33553e+06         4.73456e+07
   13.47               44258             75.5467        -1.33179e+06         4.72324e+07
   13.49             44122.7             75.4199        -1.32809e+06         4.71203e+07
   13.51             43989.2             75.2963        -1.32444e+06         4.70093e+07
   13.53             43857.7             75.1759        -1.32082e+06         4.68994e+07
   13.55               43728             75.0587        -1.31724e+06         4.67906e+07
   13.57             43600.1             74.9447        -1.31371e+06         4.66829e+07
   13.59             43474.1             74.8338        -1.31021e+06         4.65762e+07
   13.61             43349.9             74.7261        -1.30676e+06         4.64707e+07
   13.63             43227.5             74.6215        -1.30335e+06         4.63662e+07
   13.65               43107             74.5199        -1.29997e+06         4.62627e+07
   13.67             42988.2             74.4215        -1.29664e+06         4.61604e+07
   13.69             42871.2             74.3261        -1.29335e+06          4.6059e+07
   13.71             42756.1             74.2337        -1.29009e+06         4.59587e+07
   13.73             42642.6             74.1444        -1.28688e+06         4.58595e+07
   13.75               42531              74.058         -1.2837e+06         4.57613e+07
   13.77             42421.1             73.9746        -1.28056e+06         4.56642e+07
   13.79             42312.9             73.8942        -1.27746e+06          4.5568e+07
   13.81             42206.4             73.8167         -1.2744e+06         4.54729e+07
   13.83             42101.7             73.7421        -1.27138e+06         4.53788e+07
   13.85             41998.7             73.6704         -1.2684e+06         4.52857e+07
   13.87             41897.4             73.6016        -1.26545e+06         4.51936e+07
   13.89             41797.7             73.5356        -1.26254e+06         4.51025e+07
   13.91             41699.7             73.4725        -1.25967e+06         4.50124e+07
   13.93             41603.4             73.4121        -1.25683e+06         4.49233e+07
   13.95             41508.7             73.3545        -1.25404e+06         4.48352e+07
   13.97             41415.7             73.2996        -1.25127e+06          4.4748e+07
   13.99             41324.3             73.2475        -1.24855e+06         4.46618e+07
   14.01             41234.5             73.1981        -1.24586e+06         4.45766e+07
   14.03             41146.4             73.1513        -1.24321e+06         4.44923e+07
   14.05             41059.8             73.1072        -1.24059e+06          4.4409e+07
   14.07             40974.8             73.0658        -1.23801e+06         4.43266e+07
   14.09             40891.4             73.0269        -1.23546e+06         4.42452e+07
   14.11             40809.5             72.9906        -1.23295e+06         4.41647e+07
   14.13             40729.2             72.9568        -1.23047e+06         4.40851e+07
   14.15             40650.4             72.9256        -1.22803e+06         4.40065e+07
   14.17             40573.2             72.8969        -1.22562e+06         4.39288e+07
   14.19             40497.5             72.8706        -1.22325e+06         4.38519e+07
   14.21             40423.2             72.8468        -1.22091e+06          4.3776e+07
   14.23             40350.5             72.8254         -1.2186e+06          4.3701e+07
   14.25             40279.3             72.8065        -1.21633e+06         4.36269e+07
   14.27             40209.5             72.7898        -1.21409e+06         4.35536e+07
   14.29             40141.2             72.7755        -1.21188e+06         4.34813e+07
   14.31             40074.4             72.7635         -1.2097e+06         4.34098e+07
   14.33               40009             72.7538        -1.20756e+06         4.33391e+07
   14.35               39945             72.7464        -1.20545e+06         4.32694e+07
   14.37             39882.5             72.7412        -1.20338e+06         4.32005e+07
   14.39             39821.3             72.7381        -1.20133e+06         4.31324e+07
   14.41             39761.6             72.7373        -1.19932e+06         4.30652e+07
   14.43             39703.2             72.7385        -1.19733e+06         4.29988e+07
   14.45             39646.2             72.7419        -1.19538e+06         4.29333e+07
   14.47             39590.6             72.7474        -1.19346e+06         4.28685e+07
   14.49             39536.3              72.755        -1.19157e+06         4.28046e+07
   14.51             39483.4             72.7645        -1.18971e+06         4.27415e+07
   14.53             39431.8             72.7761        -1.18788e+06         4.26793e+07
   14.55             39381.5             72.7896        -1.18608e+06         4.26178e+07
   14.57             39332.5             72.8051        -1.18431e+06         4.25571e+07
   14.59             39284.8             72.8225        -1.18257e+06         4.24971e+07
   14.61             39238.4             72.8417        -1.18086e+06          4.2438e+07
   14.63             39193.3             72.8628        -1.17918e+06         4.23797e+07
   14.65             39149.4             72.8858        -1.17753e+06         4.23221e+07
   14.67             39106.8             72.9105         -1.1759e+06         4.22652e+07
   14.69             39065.5              72.937        -1.17431e+06         4.22092e+07
   14.71             39025.3             72.9652        -1.17274e+06         4.21538e+07
   14.73             38986.4             72.9951         -1.1712e+06         4.20993e+07
   14.75             38948.7             73.0267        -1.16969e+06         4.20454e+07
   14.77             38912.2               73.06         -1.1682e+06         4.19923e+07
   14.79             38876.9             73.0949        -1.16674e+06         4.19399e+07
   14.81             38842.7             73.1313        -1.16531e+06         4.18882e+07
   14.83             38809.7             73.1693        -1.16391e+06         4.18373e+07
   14.85             38777.9             73.2089        -1.16253e+06          4.1787e+07
   14.87             38747.2             73.2499        -1.16118e+06         4.17375e+07
   14.89             38717.7             73.2924        -1.15985e+06         4.16886e+07
   14.91             38689.3             73.3363        -1.15856e+06         4.16404e+07
   14.93               38662             73.3817        -1.15728e+06         4.15929e+07
   14.95             38635.7             73.4284        -1.15603e+06         4.15461e+07
   14.97             38610.6             73.4765        -1.15481e+06            4.15e+07
   14.99             38586.6             73.5258        -1.15361e+06         4.14545e+07
   15.01             38563.6             73.5765        -1.15244e+06         4.14097e+07
   15.03             38541.7             73.6285        -1.15129e+06         4.13655e+07
   15.05             38520.8             73.6817        -1.15016e+06         4.13219e+07
   15.07               38501              73.736        -1.14906e+06          4.1279e+07
   15.09             38482.2             73.7916        -1.14799e+06         4.12368e+07
   15.11             38464.4             73.8483        -1.14693e+06         4.11951e+07
   15.13             38447.6             73.9061         -1.1459e+06         4.11541e+07
   15.15             38431.8              73.965         -1.1449e+06         4.11137e+07
   15.17               38417              74.025        -1.14391e+06         4.10739e+07
   15.19             38403.2              74.086        -1.14295e+06         4.10347e+07
   15.21             38390.3             74.1479        -1.14201e+06         4.09961e+07
   15.23             38378.4             74.2109        -1.14109e+06          4.0958e+07
   15.25             38367.4             74.2748         -1.1402e+06         4.09206e+07
   15.27             38357.4             74.3396        -1.13933e+06         4.08837e+07
   15.29             38348.3             74.4054        -1.13848e+06         4.08475e+07
   15.31             38340.1             74.4719        -1.13765e+06         4.08117e+07
   15.33             38332.8             74.5393        -1.13684e+06         4.07766e+07
   15.35             38326.4             74.6075        -1.13605e+06          4.0742e+07
   15.37             38320.9             74.6765        -1.13528e+06         4.07079e+07
   15.39             38316.2             74.7463        -1.13454e+06         4.06744e+07
   15.41             38312.4             74.8167        -1.13381e+06         4.06414e+07
   15.43             38309.5             74.8879        -1.13311e+06         4.06089e+07
   15.45             38307.4             74.9597        -1.13242e+06          4.0577e+07
   15.47             38306.2             75.0322        -1.13175e+06         4.05456e+07
   15.49             38305.7             75.1053        -1.13111e+06         4.05147e+07
   15.51             38306.1              75.179        -1.13048e+06         4.04843e+07
   15.53             38307.3             75.2532        -1.12987e+06         4.04544e+07
   15.55             38309.3              75.328        -1.12928e+06          4.0425e+07
   15.57               38312             75.4033        -1.12871e+06         4.03961e+07
   15.59             38315.6              75.479        -1.12816e+06         4.03677e+07
   15.61             38319.9             75.5553        -1.12762e+06         4.03397e+07
   15.63             38324.9             75.6319        -1.12711e+06         4.03122e+07
   15.65             38330.7              75.709        -1.12661e+06         4.02852e+07
   15.67             38337.2             75.7865        -1.12613e+06         4.02587e+07
   15.69             38344.5             75.8643        -1.12567e+06         4.02326e+07
   15.71             38352.5             75.9425        -1.12522e+06          4.0207e+07
   15.73             38361.2             76.0209        -1.12479e+06         4.01818e+07
   15.75             38370.6             76.0997        -1.12438e+06          4.0157e+07
   15.77             38380.7             76.1787        -1.12398e+06         4.01327e+07
   15.79             38391.4              76.258        -1.12361e+06         4.01088e+07
   15.81             38402.9             76.3375        -1.12324e+06         4.00853e+07
   15.83             38414.9             76.4171         -1.1229e+06         4.00623e+07
   15.85             38427.7              76.497        -1.12257e+06         4.00396e+07
   15.87             38441.1              76.577        -1.12225e+06         4.00174e+07
   15.89             38455.1             76.6571        -1.12195e+06         3.99956e+07
   15.91             38469.8             76.7373        -1.12167e+06         3.99741e+07
   15.93               38485             76.8176         -1.1214e+06         3.99531e+07
   15.95             38500.9              76.898        -1.12114e+06         3.99324e+07
   15.97             38517.4             76.9783        -1.12091e+06         3.99121e+07
   15.99             38534.5             77.0587        -1.12068e+06         3.98922e+07
   16.01             38552.1             77.1391        -1.12047e+06         3.98727e+07
   16.03             38570.4             77.2195        -1.12028e+06         3.98536e+07
   16.05             38589.2             77.2998        -1.12009e+06         3.98348e+07
   16.07             38608.5             77.3801        -1.11992e+06         3.98163e+07
   16.09             38628.4             77.4602        -1.11977e+06         3.97982e+07
   16.11             38648.9             77.5403        -1.11963e+06         3.97805e+07
   16.13             38669.8             77.6202         -1.1195e+06          3.9763e+07
   16.15             38691.3                77.7        -1.11939e+06          3.9746e+07
   16.17             38713.3             77.7796        -1.11929e+06         3.97292e+07
   16.19             38735.9              77.859         -1.1192e+06         3.97128e+07
   16.21             38758.9             77.9382        -1.11912e+06         3.96967e+07
   16.23             38782.4             78.0171        -1.11906e+06         3.96809e+07
   16.25             38806.4             78.0959        -1.11901e+06         3.96655e+07
   16.27             38830.8             78.1743        -1.11897e+06         3.96503e+07
   16.29             38855.8             78.2525        -1.11894e+06         3.96355e+07
   16.31             38881.2             78.3304        -1.11892e+06         3.96209e+07
   16.33               38907             78.4079        -1.11892e+06         3.96066e+07
   16.35             38933.3             78.4851        -1.11893e+06         3.95926e+07
   16.37               38960              78.562        -1.11895e+06          3.9579e+07
   16.39             38987.2             78.6385        -1.11898e+06         3.95655e+07
   16.41             39014.7             78.7146        -1.11902e+06         3.95524e+07
   16.43             39042.7             78.7903        -1.11907e+06         3.95395e+07
   16.45             39071.1             78.8656        -1.11913e+06         3.95269e+07
   16.47             39099.9             78.9405         -1.1192e+06         3.95146e+07
   16.49             39129.1             79.0149        -1.11929e+06         3.95025e+07
   16.51             39158.6             79.0888        -1.11938e+06         3.94907e+07
   16.53             39188.6             79.1622        -1.11948e+06         3.94791e+07
   16.55             39218.9             79.2352         -1.1196e+06         3.94678e+07
   16.57             39249.5             79.3076        -1.11972e+06         3.94567e+07
   16.59             39280.5             79.3795        -1.11985e+06         3.94458e+07
   16.61             39311.9             79.4509        -1.11999e+06         3.94352e+07
   16.63             39343.6             79.5217        -1.12015e+06         3.94248e+07
   16.65             39375.6             79.5919        -1.12031e+06         3.94146e+07
   16.67               39408             79.6615        -1.12048e+06         3.94047e+07
   16.69             39440.7             79.7306        -1.12065e+06         3.93949e+07
   16.71             39473.6              79.799        -1.12084e+06         3.93854e+07
   16.73             39506.9             79.8668        -1.12104e+06         3.93761e+07
   16.75             39540.5              79.934        -1.12124e+06          3.9367e+07
   16.77             39574.4             80.0005        -1.12145e+06         3.93581e+07
   16.79             39608.6             80.0663        -1.12167e+06         3.93494e+07
   16.81               39643             80.1315         -1.1219e+06         3.93409e+07
   16.83             39677.7              80.196        -1.12213e+06         3.93325e+07
   16.85             39712.7             80.2598        -1.12238e+06         3.93244e+07
   16.87             39747.9             80.3228        -1.12263e+06         3.93164e+07
   16.89             39783.4             80.3852        -1.12289e+06         3.93086e+07
   16.91             39819.1             80.4468        -1.12315e+06          3.9301e+07
   16.93             39855.1             80.5076        -1.12343e+06         3.92936e+07
   16.95             39891.3             80.5677        -1.12371e+06         3.92863e+07
   16.97             39927.7             80.6271        -1.12399e+06         3.92792e+07
   16.99             39964.4             80.6856        -1.12429e+06         3.92723e+07
   17.01             40001.3             80.7434        -1.12459e+06         3.92655e+07
   17.03             40038.3             80.8003        -1.12489e+06         3.92588e+07
   17.05             40075.6             80.8565        -1.12521e+06         3.92523e+07
   17.07             40113.1             80.9118        -1.12553e+06          3.9246e+07
   17.09             40150.7             80.9663        -1.12585e+06         3.92398e+07
   17.11             40188.6               81.02        -1.12618e+06         3.92337e+07
   17.13             40226.6             81.0728        -1.12652e+06         3.92278e+07
   17.15             40264.8             81.1247        -1.12687e+06          3.9222e+07
   17.17             40303.1             81.1758        -1.12721e+06         3.92164e+07
   17.19             40341.7             81.2261        -1.12757e+06         3.92109e+07
   17.21             40380.3             81.2754        -1.12793e+06         3.92054e+07
   17.23             40419.2             81.3238        -1.12829e+06         3.92002e+07
   17.25             40458.1             81.3714        -1.12866e+06          3.9195e+07
   17.27             40497.2              81.418        -1.12904e+06           3.919e+07
   17.29             40536.5             81.4638        -1.12942e+06          3.9185e+07
   17.31             40575.8             81.5086        -1.12981e+06         3.91802e+07
   17.33             40615.3             81.5525         -1.1302e+06         3.91755e+07
   17.35             40654.9             81.5954        -1.13059e+06         3.91708e+07
   17.37             40694.6             81.6374        -1.13099e+06         3.91663e+07
   17.39             40734.5             81.6785        -1.13139e+06         3.91619e+07
   17.41             40774.4             81.7186         -1.1318e+06         3.91576e+07
   17.43             40814.4             81.7578        -1.13221e+06         3.91534e+07
   17.45             40854.5             81.7959        -1.13263e+06         3.91492e+07
   17.47             40894.7             81.8331        -1.13305e+06         3.91452e+07
   17.49               40935             81.8694        -1.13347e+06         3.91412e+07
   17.51             40975.4             81.9046         -1.1339e+06         3.91373e+07
   17.53             41015.8             81.9389        -1.13433e+06         3.91335e+07
   17.55             41056.3             81.9722        -1.13477e+06         3.91297e+07
   17.57             41096.8             82.0044        -1.13521e+06         3.91261e+07
   17.59             41137.4             82.0357        -1.13565e+06         3.91225e+07
   17.61             41178.1              82.066         -1.1361e+06          3.9119e+07
   17.63             41218.8             82.0952        -1.13654e+06         3.91155e+07
   17.65             41259.5             82.1235          -1.137e+06         3.91121e+07
   17.67             41300.3             82.1507        -1.13745e+06         3.91088e+07
   17.69             41341.2             82.1769        -1.13791e+06         3.91055e+07
   17.71               41382              82.202        -1.13837e+06         3.91023e+07
   17.73             41422.9             82.2262        -1.13883e+06         3.90992e+07
   17.75             41463.8             82.2493         -1.1393e+06          3.9096e+07
   17.77             41504.7             82.2713        -1.13976e+06          3.9093e+07
   17.79             41545.6             82.2924        -1.14024e+06           3.909e+07
   17.81             41586.5             82.3123        -1.14071e+06          3.9087e+07
   17.83             41627.4             82.3313        -1.14118e+06         3.90841e+07
   17.85             41668.4             82.3492        -1.14166e+06         3.90812e+07
   17.87             41709.3              82.366        -1.14214e+06         3.90784e+07
   17.89             41750.2             82.3818        -1.14262e+06         3.90756e+07
   17.91             41791.1             82.3965        -1.14311e+06         3.90728e+07
   17.93             41831.9             82.4102        -1.14359e+06         3.90701e+07
   17.95             41872.8             82.4228        -1.14408e+06         3.90674e+07
   17.97             41913.6             82.4344        -1.14457e+06         3.90647e+07
   17.99             41954.4             82.4448        -1.14506e+06         3.90621e+07
   18.01             41995.2             82.4543        -1.14555e+06         3.90595e+07
   18.03             42035.9             82.4626        -1.14604e+06         3.90569e+07
   18.05             42076.5               82.47        -1.14654e+06         3.90543e+07
   18.07             42117.2             82.4762        -1.14703e+06         3.90517e+07
   18.09             42157.7             82.4814        -1.14753e+06         3.90492e+07
   18.11             42198.3             82.4855        -1.14803e+06         3.90467e+07
   18.13             42238.7             82.4885        -1.14852e+06         3.90442e+07
   18.15             42279.1             82.4905        -1.14902e+06         3.90417e+07
   18.17             42319.5             82.4914        -1.14953e+06         3.90392e+07
   18.19             42359.7             82.4912        -1.15003e+06         3.90368e+07
   18.21             42399.9               82.49        -1.15053e+06         3.90343e+07
   18.23               42440             82.4877        -1.15103e+06         3.90318e+07
   18.25             42480.1             82.4844        -1.15154e+06         3.90294e+07
   18.27               42520               82.48        -1.15204e+06         3.90269e+07
   18.29             42559.9             82.4745        -1.15254e+06         3.90245e+07
   18.31             42599.6             82.4679        -1.15305e+06          3.9022e+07
   18.33             42639.3             82.4603        -1.15355e+06         3.90196e+07
   18.35             42678.9             82.4516        -1.15406e+06         3.90171e+07
   18.37             42718.4             82.4419        -1.15456e+06         3.90147e+07
   18.39             42757.8             82.4311        -1.15507e+06         3.90122e+07
   18.41               42797             82.4193        -1.15557e+06         3.90098e+07
   18.43             42836.2             82.4064        -1.15608e+06         3.90073e+07
   18.45             42875.2             82.3925        -1.15658e+06         3.90048e+07
   18.47             42914.1             82.3775        -1.15709e+06         3.90023e+07
   18.49             42952.9             82.3614        -1.15759e+06         3.89998e+07
   18.51             42991.6             82.3443         -1.1581e+06         3.89973e+07
   18.53             43030.2             82.3262         -1.1586e+06         3.89947e+07
   18.55             43068.6              82.307        -1.15911e+06         3.89922e+07
   18.57             43106.9             82.2868        -1.15961e+06         3.89896e+07
   18.59               43145             82.2655        -1.16011e+06          3.8987e+07
   18.61               43183             82.2433        -1.16061e+06         3.89844e+07
   18.63             43220.9             82.2199        -1.16111e+06         3.89817e+07
   18.65             43258.6             82.1956        -1.16161e+06         3.89791e+07
   18.67             43296.2             82.1702        -1.16211e+06         3.89764e+07
   18.69             43333.6             82.1439        -1.16261e+06         3.89737e+07
   18.71             43370.9             82.1165        -1.16311e+06         3.89709e+07
   18.73               43408             82.0881         -1.1636e+06         3.89682e+07
   18.75               43445             82.0586         -1.1641e+06         3.89654e+07
   18.77             43481.8             82.0282        -1.16459e+06         3.89626e+07
   18.79             43518.4             81.9968        -1.16508e+06         3.89597e+07
   18.81             43554.8             81.9644        -1.16558e+06         3.89568e+07
   18.83             43591.1             81.9309        -1.16607e+06         3.89539e+07
   18.85             43627.2             81.8965        -1.16655e+06          3.8951e+07
   18.87             43663.1             81.8611        -1.16704e+06          3.8948e+07
   18.89             43698.9             81.8248        -1.16753e+06         3.89449e+07
   18.91             43734.4             81.7874        -1.16801e+06         3.89419e+07
   18.93             43769.8             81.7491        -1.16849e+06         3.89388e+07
   18.95               43805             81.7098        -1.16897e+06         3.89357e+07
   18.97               43840             81.6695        -1.16945e+06         3.89325e+07
   18.99             43874.8             81.6283        -1.16993e+06         3.89293e+07
   19.01             43909.4             81.5862        -1.17041e+06          3.8926e+07
   19.03             43943.8             81.5431        -1.17088e+06         3.89227e+07
   19.05             43978.1              81.499        -1.17135e+06         3.89194e+07
   19.07             44012.1              81.454        -1.17182e+06          3.8916e+07
   19.09             44045.9             81.4081        -1.17229e+06         3.89125e+07
   19.11             44079.5             81.3613        -1.17275e+06         3.89091e+07
   19.13             44112.8             81.3135        -1.17321e+06         3.89055e+07
   19.15               44146             81.2648        -1.17367e+06          3.8902e+07
   19.17               44179             81.2152        -1.17413e+06         3.88983e+07
   19.19             44211.7             81.1647        -1.17459e+06         3.88947e+07
   19.21             44244.2             81.1133        -1.17504e+06          3.8891e+07
   19.23             44276.5              81.061        -1.17549e+06         3.88872e+07
   19.25             44308.5             81.0079        -1.17594e+06         3.88834e+07
   19.27             44340.4             80.9538        -1.17639e+06         3.88795e+07
   19.29               44372             80.8989        -1.17683e+06         3.88756e+07
   19.31             44403.3             80.8431        -1.17727e+06         3.88716e+07
   19.33             44434.5             80.7864        -1.17771e+06         3.88675e+07
   19.35             44465.3             80.7289        -1.17814e+06         3.88635e+07
   19.37               44496             80.6706        -1.17858e+06         3.88593e+07
   19.39             44526.4             80.6114          -1.179e+06         3.88551e+07
   19.41             44556.6             80.5513        -1.17943e+06         3.88508e+07
   19.43             44586.5             80.4904        -1.17985e+06         3.88465e+07
   19.45             44616.1             80.4288        -1.18027e+06         3.88421e+07
   19.47             44645.5             80.3662        -1.18069e+06         3.88377e+07
   19.49             44674.7             80.3029         -1.1811e+06         3.88332e+07
   19.51             44703.6             80.2388        -1.18152e+06         3.88287e+07
   19.53             44732.2             80.1739        -1.18192e+06          3.8824e+07
   19.55             44760.6             80.1082        -1.18233e+06         3.88194e+07
   19.57             44788.7             80.0417        -1.18273e+06         3.88146e+07
   19.59             44816.6             79.9744        -1.18312e+06         3.88098e+07
   19.61             44844.2             79.9064        -1.18352e+06         3.88049e+07
   19.63             44871.5             79.8376        -1.18391e+06            3.88e+07
   19.65             44898.5             79.7681         -1.1843e+06          3.8795e+07
   19.67             44925.3             79.6978        -1.18468e+06         3.87899e+07
   19.69             44951.8             79.6267        -1.18506e+06         3.87848e+07
   19.71               44978              79.555        -1.18543e+06         3.87796e+07
   19.73             45003.9             79.4825        -1.18581e+06         3.87743e+07
   19.75             45029.6             79.4093        -1.18617e+06          3.8769e+07
   19.77             45054.9             79.3354        -1.18654e+06         3.87636e+07
   19.79               45080             79.2607         -1.1869e+06         3.87581e+07
   19.81             45104.8             79.1854        -1.18726e+06         3.87526e+07
   19.83             45129.3             79.1094        -1.18761e+06          3.8747e+07
   19.85             45153.5             79.0327        -1.18796e+06         3.87413e+07
   19.87             45177.4             78.9554         -1.1883e+06         3.87355e+07
   19.89               45201             78.8774        -1.18864e+06         3.87297e+07
   19.91             45224.3             78.7987        -1.18898e+06         3.87238e+07
   19.93             45247.3             78.7193        -1.18931e+06         3.87178e+07
   19.95               45270             78.6394        -1.18964e+06         3.87117e+07
   19.97             45292.4             78.5588        -1.18996e+06         3.87056e+07
   19.99             45314.5             78.4775        -1.19028e+06         3.86994e+07
